# Column 1: Wavelength interval [nm]
# Column 2: Dark sky NSB reference spectrum (normalized to integral of 0.24/(cm^2 ns sr) in 300-650 nm range [ 1 / (nm m^2 ns sr) ]
#           Based on Benn & Ellison (astro-ph/9909153), after unit conversion and site altitude correction.
  200          0.00000    
  201          0.00000    
  202          0.00000    
  203          0.00000    
  204          0.00000    
  205          0.00000    
  206          0.00000    
  207          0.00000    
  208          0.00000    
  209          0.00000    
  210          0.00000    
  211          0.00000    
  212          0.00000    
  213          0.00000    
  214          0.00000    
  215          0.00000    
  216          0.00000    
  217          0.00000    
  218          0.00000    
  219          0.00000    
  220          0.00000    
  221          0.00000    
  222          0.00000    
  223          0.00000    
  224          0.00000    
  225          0.00000    
  226          0.00000    
  227          0.00000    
  228          0.00000    
  229          0.00000    
  230          0.00000    
  231          0.00000    
  232          0.00000    
  233          0.00000    
  234          0.00000    
  235          0.00000    
  236          0.00000    
  237          0.00000    
  238          0.00000    
  239          0.00000    
  240          0.00000    
  241          0.00000    
  242          0.00000    
  243          0.00000    
  244          0.00000    
  245          0.00000    
  246          0.00000    
  247          0.00000    
  248          0.00000    
  249          0.00000    
  250          0.00000    
  251          0.00000    
  252          0.00000    
  253          0.00000    
  254          0.00000    
  255          0.00000    
  256          0.00000    
  257          0.00000    
  258          0.00000    
  259          0.00000    
  260          0.00000    
  261          0.00000    
  262          0.00000    
  263          0.00000    
  264          0.00000    
  265          0.00000    
  266          0.00000    
  267          0.00000    
  268          0.00000    
  269          0.00000    
  270          0.00000    
  271          0.00000    
  272          0.00000    
  273          0.00000    
  274          0.00000    
  275          0.00000    
  276          0.00000    
  277          0.00000    
  278          0.00000    
  279          0.00000    
  280          0.00000    
  281          0.00000    
  282          0.00000    
  283          0.00000    
  284          0.00000    
  285          0.00000    
  286          0.00000    
  287          0.00000    
  288          0.00000    
  289          0.00000    
  290          0.00000    
  291          0.00000    
  292          0.00000    
  293          0.00000    
  294          0.00000    
  295          0.00000    
  296          0.00000    
  297          0.00000    
  298          0.00000    
  299          0.00000    
  300          0.00000    
  301          0.03664    
  302          0.07329    
  303          0.10996    
  304          0.14663    
  305          0.18329    
  306          0.21998    
  307          0.25665    
  308          0.29335    
  309          0.33005    
  310          0.36674    
  311          0.40344    
  312          0.44014    
  313          0.47684    
  314          0.51358    
  315          0.55029    
  316          0.63053    
  317          0.71079    
  318          0.79106    
  319          0.87130    
  320          0.95160    
  321          1.03190    
  322          1.11218    
  323          1.19249    
  324          1.27279    
  325          1.35309    
  326          1.43345    
  327          1.51378    
  328          1.59412    
  329          1.67447    
  330          1.75483    
  331          1.81719    
  332          1.87956    
  333          1.94193    
  334          2.00428    
  335          2.06669    
  336          2.12907    
  337          2.19146    
  338          2.25387    
  339          2.31626    
  340          2.37865    
  341          2.44109    
  342          2.50347    
  343          2.56591    
  344          2.62833    
  345          2.69074    
  346          2.75315    
  347          2.81559    
  348          2.87806    
  349          2.94048    
  350          3.00287    
  351          2.23612    
  352          4.11813    
  353          3.69744    
  354          7.06967    
  355          4.16998    
  356          4.04943    
  357          2.54901    
  358          2.75876    
  359          2.06856    
  360          1.79817    
  361          3.68180    
  362          3.59719    
  363          4.19314    
  364          4.05639    
  365          3.61538    
  366          2.85454    
  367          2.79183    
  368          2.40932    
  369          2.86114    
  370          2.85347    
  371          2.84592    
  372          3.84381    
  373          4.60893    
  374          4.34770    
  375          3.32795    
  376          3.33797    
  377          3.79642    
  378          3.26701    
  379          3.78271    
  380          3.91656    
  381          3.44904    
  382          3.77051    
  383          3.87467    
  384          3.53559    
  385          2.62166    
  386          2.97981    
  387          2.07657    
  388          2.65688    
  389          3.40374    
  390          3.44785    
  391          3.35026    
  392          6.27183    
  393          14.88549   
  394          4.87757    
  395          3.26106    
  396          2.72704    
  397          2.87854    
  398          2.89669    
  399          3.27846    
  400          3.87327    
  401          4.00060    
  402          3.80528    
  403          4.87687    
  404          5.81052    
  405          4.68633    
  406          4.85520    
  407          4.48935    
  408          4.78601    
  409          3.39720    
  410          3.69662    
  411          3.66751    
  412          3.49146    
  413          3.48674    
  414          3.72661    
  415          4.42741    
  416          4.86856    
  417          5.12453    
  418          4.41295    
  419          4.01034    
  420          4.00091    
  421          3.57443    
  422          3.04363    
  423          3.48267    
  424          3.96363    
  425          3.95439    
  426          4.39173    
  427          4.03647    
  428          3.92707    
  429          3.91801    
  430          4.17511    
  431          4.45726    
  432          4.44709    
  433          4.03524    
  434          5.64869    
  435          7.58908    
  436          5.56871    
  437          4.02920    
  438          4.28105    
  439          4.97001    
  440          5.71075    
  441          5.58726    
  442          4.91110    
  443          4.88030    
  444          4.86945    
  445          4.72936    
  446          4.55494    
  447          4.38051    
  448          4.41524    
  449          4.65090    
  450          4.86957    
  451          5.05360    
  452          5.23770    
  453          5.30445    
  454          5.29295    
  455          5.28145    
  456          5.26997    
  457          5.25854    
  458          5.24727    
  459          5.23598    
  460          5.22467    
  461          5.21364    
  462          5.20249    
  463          5.19144    
  464          5.18032    
  465          5.16927    
  466          5.15842    
  467          5.14749    
  468          5.13656    
  469          4.88561    
  470          4.68438    
  471          5.29653    
  472          5.29748    
  473          4.66230    
  474          5.16113    
  475          5.84461    
  476          5.75234    
  477          5.27769    
  478          5.18055    
  479          5.47621    
  480          5.51087    
  481          5.49950    
  482          6.09863    
  483          6.93455    
  484          5.70996    
  485          4.95898    
  486          4.94885    
  487          5.19107    
  488          6.38225    
  489          6.20418    
  490          4.99311    
  491          5.06605    
  492          5.23576    
  493          5.44214    
  494          5.78722    
  495          6.13219    
  496          6.09378    
  497          5.64019    
  498          5.18654    
  499          4.90987    
  500          5.34085    
  501          5.75883    
  502          5.52920    
  503          5.29954    
  504          5.39665    
  505          5.56067    
  506          5.75070    
  507          6.16721    
  508          5.80932    
  509          5.45151    
  510          5.22113    
  511          5.31852    
  512          5.41594    
  513          5.51332    
  514          5.61076    
  515          5.80461    
  516          6.00686    
  517          6.30093    
  518          6.62930    
  519          6.95762    
  520          6.52070    
  521          6.08368    
  522          6.13381    
  523          6.29089    
  524          6.39488    
  525          5.96297    
  526          5.53097    
  527          5.63456    
  528          5.79111    
  529          5.99253    
  530          6.43573    
  531          7.25604    
  532          7.24257    
  533          7.08122    
  534          6.65674    
  535          6.30239    
  536          6.29086    
  537          6.27945    
  538          6.26799    
  539          6.25661    
  540          6.24515    
  541          6.23368    
  542          6.22219    
  543          6.21075    
  544          8.21018    
  545          9.12153    
  546          8.61696    
  547          7.83662    
  548          7.28680    
  549          7.02169    
  550          7.00906    
  551          6.99645    
  552          6.98394    
  553          7.39539    
  554          10.03266   
  555          24.94388   
  556          49.16891   
  557          70.71927   
  558          57.31049   
  559          27.19821   
  560          9.29704    
  561          8.29527    
  562          7.66257    
  563          7.51896    
  564          7.37516    
  565          7.28051    
  566          7.46214    
  567          7.64345    
  568          7.82433    
  569          8.00564    
  570          7.91132    
  571          7.74342    
  572          7.60372    
  573          7.91968    
  574          8.23520    
  575          8.55110    
  576          8.78759    
  577          8.77260    
  578          8.75793    
  579          8.74302    
  580          8.54544    
  581          8.34041    
  582          8.18602    
  583          8.04636    
  584          7.90647    
  585          9.33482    
  586          12.33094   
  587          21.15210   
  588          27.61652   
  589          31.54185   
  590          17.00660   
  591          13.23762   
  592          11.60955   
  593          11.16938   
  594          10.90068   
  595          10.63532   
  596          10.32417   
  597          9.98047    
  598          9.63710    
  599          9.29353    
  600          8.95023    
  601          8.73865    
  602          8.59171    
  603          8.44492    
  604          8.29795    
  605          8.15095    
  606          8.00399    
  607          7.94683    
  608          7.93386    
  609          7.92107    
  610          7.90823    
  611          7.89539    
  612          8.61026    
  613          9.55496    
  614          10.49968   
  615          10.63849   
  616          9.90449    
  617          9.17028    
  618          8.66220    
  619          9.00377    
  620          9.34546    
  621          9.68688    
  622          10.61887   
  623          11.59501   
  624          12.31581   
  625          12.01406   
  626          11.71222   
  627          17.34447   
  628          38.50268   
  629          57.33808   
  630          50.36217   
  631          30.53618   
  632          12.54718   
  633          11.54538   
  634          13.38475   
  635          21.40711   
  636          24.18212   
  637          18.70079   
  638          10.38422   
  639          7.98992    
  640          7.54140    
  641          7.52975    
  642          7.51808    
  643          7.66606    
  644          9.25283    
  645          10.73263   
  646          11.15842   
  647          10.00298   
  648          10.17799   
  649          10.84608   
  650          10.76657   
  651          10.07204   
  652          9.94792    
  653          10.83492   
  654          11.16802   
  655          11.28625   
  656          11.40520   
  657          10.72005   
  658          10.03531   
  659          9.35022    
  660          8.66488    
  661          7.97979    
  662          7.61887    
  663          7.53445    
  664          7.44990    
  665          7.36562    
  666          7.28114    
  667          7.19668    
  668          7.11230    
  669          7.02780    
  670          6.94323    
  671          6.85881    
  672          6.82726    
  673          6.81736    
  674          6.80743    
  675          6.79745    
  676          6.78756    
  677          6.77763    
  678          6.76771    
  679          6.75774    
  680          8.67067    
  681          12.35878   
  682          15.24347   
  683          16.59753   
  684          14.29504   
  685          15.34914   
  686          14.97297   
  687          13.27515   
  688          11.58390   
  689          11.88969   
  690          12.98840   
  691          14.03545   
  692          14.10490   
  693          14.17190   
  694          14.24150   
  695          13.49125   
  696          12.52381   
  697          11.74753   
  698          11.09501   
  699          10.44210   
  700          9.69083    
  701          8.73431    
  702          7.96340    
  703          8.33092    
  704          8.69576    
  705          8.80310    
  706          8.54153    
  707          8.27960    
  708          8.01814    
  709          7.75601    
  710          7.49340    
  711          7.72886    
  712          7.98428    
  713          8.23918    
  714          8.42441    
  715          8.18092    
  716          7.93604    
  717          7.68778    
  718          7.44346    
  719          7.37825    
  720          7.36996    
  721          11.45565   
  722          18.38041   
  723          31.23142   
  724          29.65468   
  725          24.50750   
  726          26.73582   
  727          30.63848   
  728          26.84034   
  729          21.87012   
  730          24.25027   
  731          26.77378   
  732          28.60331   
  733          27.76730   
  734          26.15602   
  735          24.01790   
  736          22.37262   
  737          19.53218   
  738          16.83749   
  739          17.90901   
  740          15.51256   
  741          12.54440   
  742          12.80191   
  743          12.71231   
  744          12.70298   
  745          15.95000   
  746          18.69217   
  747          19.03030   
  748          15.61710   
  749          12.62731   
  750          15.46528   
  751          20.99551   
  752          21.42900   
  753          16.61841   
  754          14.48532   
  755          17.69344   
  756          19.62027   
  757          19.02595   
  758          17.05549   
  759          12.27965   
  760          11.11570   
  761          12.27636   
  762          11.67196   
  763          10.13625   
  764          11.28150   
  765          11.73234   
  766          10.99733   
  767          10.94458   
  768          13.80873   
  769          22.31699   
  770          40.88361   
  771          40.18791   
  772          33.16407   
  773          31.16660   
  774          45.33834   
  775          54.58411   
  776          57.63140   
  777          57.55688   
  778          42.18611   
  779          35.29518   
  780          34.57007   
  781          35.28683   
  782          31.30853   
  783          38.52113   
  784          49.70671   
  785          55.96527   
  786          49.67214   
  787          40.02472   
  788          34.58224   
  789          40.50643   
  790          55.12365   
  791          56.34967   
  792          38.57456   
  793          26.94896   
  794          32.59956   
  795          39.35825   
  796          42.24489   
  797          44.34243   
  798          43.07681   
  799          39.69859   
  800          32.93072   
  801          34.22545   
  802          30.11389   
  803          23.01773   
  804          21.19855   
  805          21.36422   
  806          17.53086   
  807          13.25403   
  808          14.33219   
  809          15.06460   
  810          13.79912   
  811          10.52940   
  812          10.94868   
  813          11.03663   
  814          10.26108   
  815          9.48504    
  816          10.03225   
  817          11.42726   
  818          12.82230   
  819          12.16551   
  820          11.23077   
  821          10.29318   
  822          9.50773    
  823          11.20900   
  824          12.92357   
  825          22.48286   
  826          47.31657   
  827          70.05602   
  828          72.15619   
  829          60.51755   
  830          36.05672   
  831          31.27155   
  832          57.13684   
  833          91.76044   
  834          87.95213   
  835          50.60951   
  836          34.84772   
  837          47.51179   
  838          57.48571   
  839          67.45771   
  840          60.35568   
  841          73.26444   
  842          72.02277   
  843          70.36283   
  844          61.03532   
  845          60.72518   
  846          39.24648   
  847          26.88775   
  848          33.17314   
  849          35.82685   
  850          26.00842   
  851          15.03141   
  852          19.07237   
  853          20.78877   
  854          19.33720   
  855          13.06551   
  856          11.56616   
  857          14.14990   
  858          17.68423   
  859          21.90778   
  860          28.99779   
  861          38.78822   
  862          42.94958   
  863          42.07512   
  864          44.58726   
  865          42.91416   
  866          35.91493   
  867          24.50706   
  868          16.73347   
  869          12.91688   
  870          11.37329   
  871          9.82935    
  872          19.45790   
  873          30.69617   
  874          75.08866   
  875          108.65808  
  876          112.58587  
  877          72.51869   
  878          40.42755   
  879          36.51098   
  880          79.24913   
  881          118.70894  
  882          120.33341  
  883          73.60175   
  884          48.37423   
  885          56.72634   
  886          75.45813   
  887          91.33021   
  888          89.34769   
  889          93.93881   
  890          104.27321  
  891          96.18476   
  892          69.33704   
  893          77.90722   
  894          81.75420   
  895          71.91086   
  896          39.66420   
  897          44.52819   
  898          56.10240   
  899          46.46896   
  900          24.94796   
  901          23.71235   
  902          32.45748   
  903          35.44507   
  904          27.91834   
  905          18.16470   
  906          14.29724   
  907          16.54709   
  908          19.38723   
  909          16.36978   
  910          12.33294   
  911          8.86604    
  912          10.30982   
  913          11.75176   
  914          14.07031   
  915          11.57525   
  916          9.04332    
  917          7.23720    
  918          8.79904    
  919          10.36472   
  920          12.44729   
  921          12.18986   
  922          11.33438   
  923          16.73220   
  924          24.04997   
  925          23.09537   
  926          19.73188   
  927          21.90442   
  928          73.61351   
  929          137.30772  
  930          157.41219  
  931          97.69960   
  932          56.55473   
  933          30.08898   
  934          71.66388   
  935          120.77593  
  936          156.94915  
  937          100.08594  
  938          60.37968   
  939          68.42870   
  940          88.38843   
  941          132.76710  
  942          146.75800  
  943          140.39148  
  944          127.86413  
  945          147.67761  
  946          129.85732  
  947          111.65223  
  948          87.08827   
  949          98.10236   
  950          82.77898   
  951          63.33009   
  952          49.59686   
  953          71.41190   
  954          93.20665   
  955          93.79137   
  956          64.00791   
  957          34.21435   
  958          32.38998   
  959          43.14946   
  960          43.45568   
  961          33.30068   
  962          23.15387   
  963          32.66313   
  964          48.03684   
  965          68.51279   
  966          92.55268   
  967          104.57192  
  968          120.17131  
  969          131.10336  
  970          133.16913  
  971          133.02970  
  972          132.88311  
  973          132.71547  
  974          132.55553  
  975          132.41049  
  976          132.30960  
  977          132.21081  
  978          132.07578  
  979          131.96908  
  980          131.86872  
  981          131.73795  
  982          131.60574  
  983          131.49752  
  984          131.38367  
  985          131.26507  
  986          131.14606  
  987          131.01586  
  988          130.88775  
  989          130.75393  
  990          130.62308  
  991          130.49285  
  992          130.36178  
  993          130.23352  
  994          130.10327  
  995          129.97238  
  996          129.84081  
  997          129.70597  
  998          129.56828  
  999          129.43665  
